    time   p_floor        TU        TL        Zs       mOx   RHRdata       RHR    mfdata        mf  FireArea  FireDiam zVirtOrig    Lflame
     [s]      [Pa]      [°C]      [°C]       [m]      [kg]       [W]       [W]    [kg/s]    [kg/s]      [m²]       [m]       [m]       [m]
     0.0     0.000    20.000    20.000     2.950    39.380        0.        0.     0.000     0.000     0.000     0.000     0.000     0.000
    60.0    -0.097    26.476    20.114     2.372    39.103    40000.    40000.     0.003     0.003     0.160     0.451    -0.097     0.567
   120.0    -0.377    43.591    21.285     1.842    37.539   160000.   160000.     0.011     0.011     0.640     0.903    -0.289     0.869
   180.0    -1.106    69.940    23.973     1.511    34.641   360000.   360000.     0.026     0.026     1.440     1.354    -0.507     1.094
   240.0    -2.374   102.628    27.936     1.167    30.734   640001.   640001.     0.046     0.046     2.560     1.805    -0.741     1.274
   300.0    -3.977   144.127    33.047     0.907    26.353  1000001.  1000001.     0.071     0.071     4.000     2.257    -0.986     1.423
   360.0    -5.638   193.283    38.979     0.716    21.983  1440001.  1440001.     0.103     0.103     5.760     2.708    -1.240     1.547
   420.0    -9.279   234.540                        16.215  1960002.  1960002.     0.140     0.140     7.840     3.159
   480.0   -10.879   306.436                        12.699  2560003.  2560003.     0.183     0.183    10.240     3.611
   540.0   -11.861   372.073                         9.739  3240003.  3240003.     0.231     0.231    12.960     4.062
   600.0   -12.652   440.525                         7.081  4000004.  4000004.     0.286     0.286    16.000     4.514
   660.0   -14.646   650.515                         0.137  4840005.  7579188.     0.346     0.541    30.317     6.213
   720.0   -14.226   659.190                         0.004  5760006.  6823280.     0.411     0.487    27.293     5.895
   780.0   -14.379   686.707                         0.000  6760007.  6815720.     0.483     0.487    27.263     5.892
   840.0   -14.493   709.061                         0.000  7840008.  6804337.     0.560     0.486    27.217     5.887
   900.0   -14.590   729.151                         0.000  9000009.  6791942.     0.643     0.485    27.168     5.881
   960.0   -14.676   747.913                         0.000 10240010.  6779341.     0.731     0.484    27.117     5.876
  1020.0   -14.754   765.645                         0.000 11560011.  6766861.     0.826     0.483    27.067     5.871
  1080.0   -14.824   782.417                         0.000 12000001.  6754691.     0.857     0.482    27.019     5.865
  1140.0   -14.888   798.233                         0.000 12000001.  6742955.     0.857     0.482    26.972     5.860
  1200.0   -14.946   813.081                         0.000 12000001.  6731737.     0.857     0.481    26.927     5.855
  1260.0   -14.998   826.962                         0.000 12000001.  6721089.     0.857     0.480    26.884     5.851
  1320.0   -15.045   839.895                         0.000 12000001.  6711035.     0.857     0.479    26.844     5.846
  1380.0   -15.088   851.914                         0.000 12000001.  6701578.     0.857     0.479    26.806     5.842
  1440.0   -15.127   863.068                         0.000 12000001.  6692705.     0.857     0.478    26.771     5.838
  1500.0   -15.162   873.412                         0.000 12000001.  6684394.     0.857     0.477    26.738     5.835
  1560.0   -15.193   883.009                         0.000 12000001.  6676611.     0.857     0.477    26.706     5.831
  1620.0   -15.222   891.921                         0.000 12000001.  6669323.     0.857     0.476    26.677     5.828
  1680.0   -15.249   900.208                         0.000 12000001.  6662493.     0.857     0.476    26.650     5.825
  1740.0   -15.273   907.928                         0.000 12000001.  6656085.     0.857     0.475    26.624     5.822
  1800.0   -15.295   915.135                         0.000 12000001.  6650062.     0.857     0.475    26.600     5.820
  1860.0   -11.155   973.753                         1.552 12000001. 12000000.     0.857     0.857    48.000     7.818
  1920.0   -11.176   989.579                         1.520 12000001. 12000000.     0.857     0.857    48.000     7.818
  1980.0   -11.193  1002.876                         1.492 12000001. 12000000.     0.857     0.857    48.000     7.818
  2040.0   -11.207  1014.256                         1.469 12000001. 12000000.     0.857     0.857    48.000     7.818
  2100.0   -11.218  1024.070                         1.450 12000001. 12000000.     0.857     0.857    48.000     7.818
  2160.0   -11.228  1032.614                         1.433 11933618. 12000000.     0.852     0.857    48.000     7.818
  2220.0   -11.236  1040.124                         1.418 11358377. 12000000.     0.811     0.857    48.000     7.818
  2280.0   -11.243  1046.790                         1.405 10783135. 12000000.     0.770     0.857    48.000     7.818
  2340.0   -11.250  1052.762                         1.394 10207894. 12000000.     0.729     0.857    48.000     7.818
  2400.0   -11.255  1058.162                         1.383  9632653. 12000000.     0.688     0.857    48.000     7.818
  2460.0   -11.260  1063.082                         1.374  9057412. 12000000.     0.647     0.857    48.000     7.818
  2520.0   -11.265  1067.600                         1.366  8482171. 12000000.     0.606     0.857    48.000     7.818
  2580.0   -11.281  1058.220                         1.664  7906930. 11463109.     0.565     0.819    45.852     7.641
  2640.0   -11.287  1040.755                         2.038  7331688. 10887867.     0.524     0.778    43.551     7.447
  2700.0   -11.286  1018.436                         2.434  6756447. 10312626.     0.483     0.737    41.251     7.247
  2760.0   -11.278   992.271                         2.856  6181206.  9737384.     0.442     0.696    38.950     7.042
  2820.0   -11.262   962.981                         3.305  5605965.  9162143.     0.400     0.654    36.649     6.831
  2880.0   -11.238   931.083                         3.785  5030724.  8586901.     0.359     0.613    34.348     6.613
  2940.0   -11.206   896.941                         4.299  4455483.  8011660.     0.318     0.572    32.047     6.388
  3000.0   -11.163   860.813                         4.852  3880241.  7436418.     0.277     0.531    29.746     6.154
  3060.0   -11.109   822.877                         5.449  3305000.  6861177.     0.236     0.490    27.445     5.911
  3120.0   -11.041   783.253                         6.097  2729759.  6285935.     0.195     0.449    25.144     5.658
  3180.0   -10.957   742.020                         6.804  2154518.  5710694.     0.154     0.408    22.843     5.393
  3240.0   -10.853   699.222                         7.580  1579277.  5135452.     0.113     0.367    20.542     5.114
  3300.0   -10.726   654.881                         8.438  1004036.  4560211.     0.072     0.326    18.241     4.819
  3360.0   -10.570   609.000                         9.396   428794.  3984969.     0.031     0.285    15.940     4.505
  3420.0   -10.377   561.572                        10.473        0.  3409728.     0.000     0.244    13.639     4.167
  3480.0   -10.140   512.585                        11.699        0.  2834486.     0.000     0.202    11.338     3.799
  3540.0    -9.843   462.031                        13.112        0.  2259245.     0.000     0.161     9.037     3.392
  3600.0    -9.470   409.910                        14.763        0.  1684003.     0.000     0.120     6.736     2.929
  3660.0    -8.995   356.239                        16.727        0.  1108762.     0.000     0.079     4.435     2.376
  3720.0    -8.381   301.046                        19.112        0.   533520.     0.000     0.038     2.134     1.648
  3780.0    -7.574   245.417                        22.029        0.        0.     0.000     0.000     0.000     0.000
  3840.0    -7.160   222.879                        23.242        0.        0.     0.000     0.000     0.000     0.000
  3900.0    -6.865   207.631                        23.989        0.        0.     0.000     0.000     0.000     0.000
  3960.0    -6.611   195.271                        24.624        0.        0.     0.000     0.000     0.000     0.000
  4020.0    -6.384   184.855                        25.186        0.        0.     0.000     0.000     0.000     0.000
  4080.0    -6.178   175.891                        25.691        0.        0.     0.000     0.000     0.000     0.000
  4140.0    -5.991   168.066                        26.148        0.        0.     0.000     0.000     0.000     0.000
  4200.0    -5.820   161.162                        26.565        0.        0.     0.000     0.000     0.000     0.000
  4260.0    -5.661   155.016                        26.947        0.        0.     0.000     0.000     0.000     0.000
  4320.0    -5.515   149.504                        27.299        0.        0.     0.000     0.000     0.000     0.000
  4380.0    -5.379   144.529                        27.625        0.        0.     0.000     0.000     0.000     0.000
  4440.0    -5.252   140.013                        27.928        0.        0.     0.000     0.000     0.000     0.000
  4500.0    -5.134   135.893                        28.210        0.        0.     0.000     0.000     0.000     0.000
  4560.0    -5.023   132.116                        28.473        0.        0.     0.000     0.000     0.000     0.000
  4620.0    -4.918   128.639                        28.720        0.        0.     0.000     0.000     0.000     0.000
  4680.0    -4.820   125.425                        28.952        0.        0.     0.000     0.000     0.000     0.000
  4740.0    -4.727   122.445                        29.171        0.        0.     0.000     0.000     0.000     0.000
  4800.0    -4.640   119.672                        29.377        0.        0.     0.000     0.000     0.000     0.000
  4860.0    -4.556   117.084                        29.573        0.        0.     0.000     0.000     0.000     0.000
  4920.0    -4.477   114.661                        29.758        0.        0.     0.000     0.000     0.000     0.000
  4980.0    -4.402   112.387                        29.934        0.        0.     0.000     0.000     0.000     0.000
  5040.0    -4.330   110.248                        30.101        0.        0.     0.000     0.000     0.000     0.000
  5100.0    -4.262   108.230                        30.261        0.        0.     0.000     0.000     0.000     0.000
  5160.0    -4.196   106.324                        30.413        0.        0.     0.000     0.000     0.000     0.000
  5220.0    -4.133   104.518                        30.558        0.        0.     0.000     0.000     0.000     0.000
  5280.0    -4.073   102.805                        30.698        0.        0.     0.000     0.000     0.000     0.000
  5340.0    -4.016   101.176                        30.832        0.        0.     0.000     0.000     0.000     0.000
  5400.0    -3.960    99.626                        30.960        0.        0.     0.000     0.000     0.000     0.000
  5460.0    -3.906    98.147                        31.084        0.        0.     0.000     0.000     0.000     0.000
  5520.0    -3.855    96.734                        31.203        0.        0.     0.000     0.000     0.000     0.000
  5580.0    -3.805    95.383                        31.317        0.        0.     0.000     0.000     0.000     0.000
  5640.0    -3.757    94.089                        31.428        0.        0.     0.000     0.000     0.000     0.000
  5700.0    -3.711    92.847                        31.535        0.        0.     0.000     0.000     0.000     0.000
  5760.0    -3.666    91.655                        31.638        0.        0.     0.000     0.000     0.000     0.000
  5820.0    -3.622    90.509                        31.738        0.        0.     0.000     0.000     0.000     0.000
  5880.0    -3.580    89.406                        31.834        0.        0.     0.000     0.000     0.000     0.000
  5940.0    -3.539    88.344                        31.928        0.        0.     0.000     0.000     0.000     0.000
  6000.0    -3.500    87.319                        32.019        0.        0.     0.000     0.000     0.000     0.000
  6060.0    -3.461    86.330                        32.107        0.        0.     0.000     0.000     0.000     0.000
  6120.0    -3.424    85.375                        32.193        0.        0.     0.000     0.000     0.000     0.000
  6180.0    -3.387    84.451                        32.276        0.        0.     0.000     0.000     0.000     0.000
  6240.0    -3.352    83.557                        32.357        0.        0.     0.000     0.000     0.000     0.000
  6300.0    -3.317    82.692                        32.436        0.        0.     0.000     0.000     0.000     0.000
  6360.0    -3.284    81.853                        32.513        0.        0.     0.000     0.000     0.000     0.000
  6420.0    -3.251    81.039                        32.587        0.        0.     0.000     0.000     0.000     0.000
  6480.0    -3.219    80.250                        32.660        0.        0.     0.000     0.000     0.000     0.000
  6540.0    -3.187    79.483                        32.731        0.        0.     0.000     0.000     0.000     0.000
  6600.0    -3.157    78.739                        32.801        0.        0.     0.000     0.000     0.000     0.000
  6660.0    -3.127    78.015                        32.868        0.        0.     0.000     0.000     0.000     0.000
  6720.0    -3.098    77.311                        32.935        0.        0.     0.000     0.000     0.000     0.000
  6780.0    -3.070    76.626                        32.999        0.        0.     0.000     0.000     0.000     0.000
  6840.0    -3.042    75.959                        33.062        0.        0.     0.000     0.000     0.000     0.000
  6900.0    -3.015    75.310                        33.124        0.        0.     0.000     0.000     0.000     0.000
  6960.0    -2.988    74.677                        33.184        0.        0.     0.000     0.000     0.000     0.000
  7020.0    -2.962    74.060                        33.243        0.        0.     0.000     0.000     0.000     0.000
  7080.0    -2.936    73.458                        33.301        0.        0.     0.000     0.000     0.000     0.000
  7140.0    -2.911    72.871                        33.358        0.        0.     0.000     0.000     0.000     0.000
  7200.0    -2.887    72.298                        33.413        0.        0.     0.000     0.000     0.000     0.000
